# Spalte1: Wellenlänge [nm]
# Spalte2: Intensität
350	2.051655
351	1.863723
352	1.714978
353	1.587172
354	1.496301
355	1.402188
356	1.324868
357	1.248410
358	1.183584
359	1.139415
360	1.111192
361	1.083258
362	1.051844
363	1.010897
364	0.959975
365	0.900540
366	0.837908
367	0.777615
368	0.714793
369	0.652422
370	0.592219
371	0.540084
372	0.494280
373	0.457097
374	0.422729
375	0.392534
376	0.364160
377	0.337654
378	0.309495
379	0.282461
380	0.251212
381	0.219851
382	0.188122
383	0.156693
384	0.125406
385	0.096749
386	0.071618
387	0.050494
388	0.033734
389	0.021448
390	0.013298
391	0.008596
392	0.006497
393	0.006175
394	0.006791
395	0.007688
396	0.008493
397	0.008919
398	0.008845
399	0.008377
400	0.007545
401	0.006556
402	0.005554
403	0.004665
404	0.003988
405	0.003608
406	0.003534
407	0.003699
408	0.004036
409	0.004442
410	0.004821
411	0.005094
412	0.005229
413	0.005175
414	0.004926
415	0.004555
416	0.004077
417	0.003553
418	0.003045
419	0.002605
420	0.002267
421	0.002046
422	0.001945
423	0.001942
424	0.002006
425	0.002103
426	0.002205
427	0.002290
428	0.002345
429	0.002367
430	0.002357
431	0.002327
432	0.002279
433	0.002225
434	0.002171
435	0.002120
436	0.002077
437	0.002042
438	0.002011
439	0.001975
440	0.001928
441	0.001861
442	0.001772
443	0.001664
444	0.001543
445	0.001415
446	0.001288
447	0.001165
448	0.001051
449	0.000951
450	0.000871
451	0.000820
452	0.000805
453	0.000835
454	0.000909
455	0.001019
456	0.001152
457	0.001292
458	0.001421
459	0.001526
460	0.001601
461	0.001644
462	0.001662
463	0.001663
464	0.001654
465	0.001638
466	0.001617
467	0.001592
468	0.001567
469	0.001553
470	0.001554
471	0.001578
472	0.001626
473	0.001689
474	0.001756
475	0.001804
476	0.001813
477	0.001763
478	0.001652
479	0.001488
480	0.001291
481	0.001086
482	0.000901
483	0.000760
484	0.000681
485	0.000676
486	0.000749
487	0.000894
488	0.001095
489	0.001334
490	0.001583
491	0.001812
492	0.001990
493	0.002087
494	0.002090
495	0.002001
496	0.001838
497	0.001623
498	0.001386
499	0.001161
500	0.000969
501	0.000822
502	0.000724
503	0.000670
504	0.000656
505	0.000672
506	0.000713
507	0.000771
508	0.000836
509	0.000897
510	0.000944
511	0.000969
512	0.000968
513	0.000946
514	0.000915
515	0.000890
516	0.000890
517	0.000929
518	0.001013
519	0.001139
520	0.001295
521	0.001461
522	0.001617
523	0.001739
524	0.001806
525	0.001800
526	0.001714
527	0.001552
528	0.001328
529	0.001062
530	0.000780
531	0.000513
532	0.000287
533	0.000124
534	0.000039
535	0.000032
536	0.000096
537	0.000214
538	0.000363
539	0.000522
540	0.000673
541	0.000803
542	0.000902
543	0.000967
544	0.000995
545	0.000986
546	0.000942
547	0.000866
548	0.000768
549	0.000659
550	0.000557
551	0.000475
552	0.000431
553	0.000433
554	0.000483
555	0.000574
556	0.000687
557	0.000799
558	0.000884
559	0.000919
560	0.000894
561	0.000810
562	0.000679
563	0.000516
564	0.000343
565	0.000185
566	0.000066
567	0.000003
568	0.000000
569	0.000021
570	0.000095
571	0.000197
572	0.000315
573	0.000436
574	0.000545
575	0.000631
576	0.000686
577	0.000705
578	0.000689
579	0.000643
580	0.000573
581	0.000493
582	0.000416
583	0.000354
584	0.000317
585	0.000307
586	0.000317
587	0.000340
588	0.000364
589	0.000381
590	0.000390
591	0.000393
592	0.000398
593	0.000412
594	0.000441
595	0.000489
596	0.000554
597	0.000631
598	0.000709
599	0.000775
600	0.000814
601	0.000816
602	0.000775
603	0.000698
604	0.000594
605	0.000483
606	0.000384
607	0.000316
608	0.000294
609	0.000327
610	0.000415
611	0.000545
612	0.000694
613	0.000833
614	0.000933
615	0.000975
616	0.000953
617	0.000879
618	0.000777
619	0.000669
620	0.000575
621	0.000504
622	0.000459
623	0.000439
624	0.000442
625	0.000462
626	0.000495
627	0.000530
628	0.000557
629	0.000571
630	0.000573
631	0.000575
632	0.000596
633	0.000659
634	0.000779
635	0.000955
636	0.001174
637	0.001408
638	0.001626
639	0.001800
640	0.001916
641	0.001982
642	0.002024
643	0.002076
644	0.002176
645	0.002346
646	0.002584
647	0.002874
648	0.003187
649	0.003489
650	0.003745
651	0.003942
652	0.004075
653	0.004149
654	0.004174
655	0.004192
656	0.004248
657	0.004384
658	0.004606
659	0.004887
660	0.005185
661	0.005445
662	0.005626
663	0.005719
664	0.005768
665	0.005828
666	0.005967
667	0.006233
668	0.006627
669	0.007130
670	0.007699
