# Spalte1: Wellenlänge [nm]
# Spalte2: Intensität
350	2.095236
351	1.916259
352	1.778654
353	1.661938
354	1.581581
355	1.494178
356	1.420182
357	1.342435
358	1.273243
359	1.223360
360	1.188718
361	1.153449
362	1.114409
363	1.065818
364	1.007629
365	0.941566
366	0.873087
367	0.807698
368	0.740028
369	0.672895
370	0.607861
371	0.550868
372	0.500077
373	0.457806
374	0.418274
375	0.382926
376	0.349502
377	0.318080
378	0.285391
379	0.254115
380	0.219621
381	0.185923
382	0.153077
383	0.121914
384	0.092585
385	0.067164
386	0.046171
387	0.029668
388	0.017533
389	0.009421
390	0.004634
391	0.002341
392	0.001748
393	0.002172
394	0.003027
395	0.003902
396	0.004594
397	0.004979
398	0.005027
399	0.004822
400	0.004384
401	0.003818
402	0.003178
403	0.002513
404	0.001864
405	0.001279
406	0.000782
407	0.000377
408	0.000077
409	0.000000
410	0.000000
411	0.000000
412	0.000000
413	0.000177
414	0.000517
415	0.000951
416	0.001448
417	0.001966
418	0.002451
419	0.002844
420	0.003099
421	0.003179
422	0.003074
423	0.002811
424	0.002429
425	0.001980
426	0.001525
427	0.001117
428	0.000792
429	0.000570
430	0.000455
431	0.000440
432	0.000500
433	0.000615
434	0.000762
435	0.000919
436	0.001066
437	0.001186
438	0.001266
439	0.001293
440	0.001264
441	0.001178
442	0.001047
443	0.000887
444	0.000717
445	0.000557
446	0.000423
447	0.000321
448	0.000254
449	0.000217
450	0.000202
451	0.000204
452	0.000220
453	0.000251
454	0.000300
455	0.000370
456	0.000463
457	0.000575
458	0.000703
459	0.000836
460	0.000963
461	0.001069
462	0.001143
463	0.001176
464	0.001161
465	0.001099
466	0.000997
467	0.000870
468	0.000737
469	0.000623
470	0.000550
471	0.000532
472	0.000577
473	0.000681
474	0.000832
475	0.001009
476	0.001186
477	0.001337
478	0.001447
479	0.001508
480	0.001525
481	0.001504
482	0.001459
483	0.001400
484	0.001327
485	0.001239
486	0.001131
487	0.000997
488	0.000839
489	0.000669
490	0.000503
491	0.000358
492	0.000248
493	0.000181
494	0.000153
495	0.000154
496	0.000173
497	0.000201
498	0.000232
499	0.000269
500	0.000318
501	0.000382
502	0.000463
503	0.000560
504	0.000665
505	0.000765
506	0.000849
507	0.000903
508	0.000919
509	0.000891
510	0.000822
511	0.000716
512	0.000582
513	0.000430
514	0.000272
515	0.000120
516	0.000000
517	0.000000
518	0.000000
519	0.000000
520	0.000000
521	0.000000
522	0.000013
523	0.000126
524	0.000244
525	0.000342
526	0.000404
527	0.000423
528	0.000401
529	0.000347
530	0.000277
531	0.000210
532	0.000164
533	0.000150
534	0.000178
535	0.000248
536	0.000355
537	0.000489
538	0.000635
539	0.000778
540	0.000899
541	0.000981
542	0.001011
543	0.000983
544	0.000897
545	0.000767
546	0.000614
547	0.000463
548	0.000340
549	0.000266
550	0.000252
551	0.000297
552	0.000393
553	0.000523
554	0.000670
555	0.000814
556	0.000942
557	0.001042
558	0.001111
559	0.001148
560	0.001157
561	0.001151
562	0.001141
563	0.001128
564	0.001108
565	0.001070
566	0.001011
567	0.000930
568	0.000833
569	0.000724
570	0.000607
571	0.000485
572	0.000367
573	0.000263
574	0.000191
575	0.000165
576	0.000194
577	0.000283
578	0.000431
579	0.000624
580	0.000844
581	0.001062
582	0.001247
583	0.001370
584	0.001409
585	0.001354
586	0.001215
587	0.001012
588	0.000785
589	0.000579
590	0.000436
591	0.000386
592	0.000440
593	0.000586
594	0.000792
595	0.001014
596	0.001202
597	0.001316
598	0.001326
599	0.001225
600	0.001026
601	0.000758
602	0.000464
603	0.000192
604	0.000006
605	0.000000
606	0.000000
607	0.000000
608	0.000133
609	0.000372
610	0.000640
611	0.000901
612	0.001129
613	0.001298
614	0.001394
615	0.001412
616	0.001355
617	0.001244
618	0.001105
619	0.000967
620	0.000857
621	0.000791
622	0.000779
623	0.000817
624	0.000898
625	0.001011
626	0.001143
627	0.001282
628	0.001416
629	0.001534
630	0.001633
631	0.001713
632	0.001783
633	0.001859
634	0.001957
635	0.002084
636	0.002243
637	0.002424
638	0.002610
639	0.002784
640	0.002932
641	0.003045
642	0.003123
643	0.003166
644	0.003186
645	0.003203
646	0.003239
647	0.003327
648	0.003500
649	0.003775
650	0.004139
651	0.004566
652	0.005009
653	0.005409
654	0.005702
655	0.005865
656	0.005906
657	0.005864
658	0.005796
659	0.005764
660	0.005836
661	0.006043
662	0.006373
663	0.006784
664	0.007229
665	0.007647
666	0.008009
667	0.008310
668	0.008544
669	0.008745
670	0.008963
