# Spalte1: Wellenlänge [nm]
# Spalte2: Intensität
350	0.089205
351	0.082852
352	0.078945
353	0.076634
354	0.076604
355	0.076698
356	0.077766
357	0.078783
358	0.080391
359	0.083433
360	0.087975
361	0.093167
362	0.098835
363	0.104405
364	0.109606
365	0.114230
366	0.118490
367	0.122810
368	0.126082
369	0.128252
370	0.129218
371	0.130071
372	0.130537
373	0.131470
374	0.131724
375	0.132202
376	0.132747
377	0.134000
378	0.135117
379	0.137637
380	0.139121
381	0.141363
382	0.143866
383	0.146406
384	0.147566
385	0.148288
386	0.148524
387	0.147963
388	0.146524
389	0.144026
390	0.140963
391	0.137896
392	0.134779
393	0.131550
394	0.127881
395	0.123606
396	0.119891
397	0.116301
398	0.112378
399	0.108940
400	0.104910
401	0.101051
402	0.097101
403	0.092832
404	0.088156
405	0.083606
406	0.079366
407	0.075026
408	0.070879
409	0.066876
410	0.063146
411	0.059751
412	0.056932
413	0.054340
414	0.051884
415	0.049932
416	0.048109
417	0.046457
418	0.045004
419	0.043727
420	0.042609
421	0.041581
422	0.040657
423	0.039840
424	0.039086
425	0.038359
426	0.037657
427	0.036978
428	0.036287
429	0.035599
430	0.034885
431	0.034235
432	0.033596
433	0.032988
434	0.032390
435	0.031761
436	0.031090
437	0.030389
438	0.029659
439	0.028881
440	0.028121
441	0.027331
442	0.026557
443	0.025807
444	0.025101
445	0.024420
446	0.023759
447	0.023088
448	0.022386
449	0.021647
450	0.020816
451	0.019903
452	0.018914
453	0.017876
454	0.016836
455	0.015782
456	0.014751
457	0.013738
458	0.012781
459	0.011890
460	0.011058
461	0.010275
462	0.009549
463	0.008876
464	0.008233
465	0.007601
466	0.006965
467	0.006316
468	0.005656
469	0.005000
470	0.004351
471	0.003728
472	0.003154
473	0.002649
474	0.002237
475	0.001929
476	0.001722
477	0.001604
478	0.001559
479	0.001563
480	0.001592
481	0.001618
482	0.001624
483	0.001598
484	0.001537
485	0.001445
486	0.001332
487	0.001207
488	0.001076
489	0.000946
490	0.000819
491	0.000694
492	0.000571
493	0.000449
494	0.000333
495	0.000229
496	0.000144
497	0.000085
498	0.000055
499	0.000054
500	0.000078
501	0.000118
502	0.000163
503	0.000204
504	0.000234
505	0.000251
506	0.000257
507	0.000256
508	0.000254
509	0.000257
510	0.000267
511	0.000283
512	0.000300
513	0.000310
514	0.000307
515	0.000284
516	0.000241
517	0.000180
518	0.000109
519	0.000040
520	0.000000
521	0.000000
522	0.000000
523	0.000000
524	0.000053
525	0.000147
526	0.000257
527	0.000372
528	0.000480
529	0.000574
530	0.000646
531	0.000696
532	0.000724
533	0.000734
534	0.000729
535	0.000713
536	0.000686
537	0.000651
538	0.000605
539	0.000548
540	0.000478
541	0.000396
542	0.000305
543	0.000208
544	0.000111
545	0.000023
546	0.000000
547	0.000000
548	0.000000
549	0.000000
550	0.000000
551	0.000070
552	0.000201
553	0.000355
554	0.000522
555	0.000686
556	0.000833
557	0.000953
558	0.001035
559	0.001076
560	0.001077
561	0.001046
562	0.000997
563	0.000937
564	0.000871
565	0.000804
566	0.000744
567	0.000698
568	0.000670
569	0.000656
570	0.000651
571	0.000647
572	0.000634
573	0.000606
574	0.000561
575	0.000503
576	0.000436
577	0.000367
578	0.000305
579	0.000257
580	0.000230
581	0.000228
582	0.000252
583	0.000299
584	0.000365
585	0.000441
586	0.000519
587	0.000590
588	0.000644
589	0.000677
590	0.000684
591	0.000667
592	0.000629
593	0.000575
594	0.000513
595	0.000447
596	0.000384
597	0.000326
598	0.000276
599	0.000236
600	0.000206
601	0.000188
602	0.000185
603	0.000200
604	0.000238
605	0.000301
606	0.000391
607	0.000507
608	0.000640
609	0.000781
610	0.000917
611	0.001031
612	0.001110
613	0.001143
614	0.001131
615	0.001073
616	0.000982
617	0.000873
618	0.000769
619	0.000689
620	0.000648
621	0.000657
622	0.000717
623	0.000817
624	0.000943
625	0.001074
626	0.001191
627	0.001277
628	0.001324
629	0.001330
630	0.001301
631	0.001250
632	0.001192
633	0.001142
634	0.001113
635	0.001111
636	0.001138
637	0.001187
638	0.001246
639	0.001301
640	0.001332
641	0.001324
642	0.001265
643	0.001149
644	0.000987
645	0.000798
646	0.000612
647	0.000469
648	0.000403
649	0.000446
650	0.000607
651	0.000880
652	0.001241
653	0.001642
654	0.002024
655	0.002328
656	0.002506
657	0.002525
658	0.002378
659	0.002087
660	0.001705
661	0.001300
662	0.000950
663	0.000722
664	0.000661
665	0.000771
666	0.001019
667	0.001337
668	0.001641
669	0.001853
670	0.001928
