# Spalte1: Wellenlänge [nm]
# Spalte2: Intensität
350	0.042116
351	0.040280
352	0.037387
353	0.032437
354	0.025929
355	0.017837
356	0.009644
357	0.002487
358	0.000000
359	0.000000
360	0.000000
361	0.000000
362	0.003752
363	0.011372
364	0.020557
365	0.030890
366	0.042259
367	0.055041
368	0.069271
369	0.085549
370	0.104443
371	0.127519
372	0.155416
373	0.190126
374	0.230670
375	0.278653
376	0.334059
377	0.398947
378	0.471024
379	0.555835
380	0.644025
381	0.742873
382	0.850429
383	0.965439
384	1.077652
385	1.191916
386	1.306880
387	1.418440
388	1.523795
389	1.618236
390	1.704046
391	1.785739
392	1.861082
393	1.927220
394	1.977354
395	2.006870
396	2.033895
397	2.052160
398	2.054930
399	2.059179
400	2.047218
401	2.036010
402	2.023049
403	2.005142
404	1.980490
405	1.960277
406	1.947800
407	1.931139
408	1.914685
409	1.894240
410	1.870986
411	1.845842
412	1.826668
413	1.803713
414	1.775327
415	1.756559
416	1.736792
417	1.719240
418	1.706336
419	1.698345
420	1.695215
421	1.694518
422	1.696935
423	1.702719
424	1.710234
425	1.717921
426	1.725704
427	1.733511
428	1.739457
429	1.744193
430	1.746059
431	1.749479
432	1.751904
433	1.754705
434	1.757302
435	1.758105
436	1.757269
437	1.756159
438	1.755199
439	1.753283
440	1.753948
441	1.753138
442	1.752489
443	1.751239
444	1.749758
445	1.746591
446	1.741808
447	1.734655
448	1.724877
449	1.713987
450	1.698710
451	1.680447
452	1.659556
453	1.637782
454	1.618054
455	1.597706
456	1.578606
457	1.558364
458	1.538962
459	1.520394
460	1.500852
461	1.478515
462	1.454749
463	1.430289
464	1.403979
465	1.374863
466	1.343124
467	1.308394
468	1.272347
469	1.237291
470	1.201986
471	1.166747
472	1.132027
473	1.097044
474	1.063670
475	1.032500
476	1.002057
477	0.970274
478	0.937265
479	0.903274
480	0.868518
481	0.831943
482	0.794489
483	0.756815
484	0.718842
485	0.681832
486	0.647372
487	0.615556
488	0.586157
489	0.560250
490	0.537593
491	0.518092
492	0.500832
493	0.484531
494	0.468157
495	0.451659
496	0.434921
497	0.417390
498	0.398470
499	0.379842
500	0.361138
501	0.342500
502	0.324198
503	0.306681
504	0.290609
505	0.275488
506	0.261268
507	0.247584
508	0.234145
509	0.220745
510	0.207614
511	0.194812
512	0.182466
513	0.170642
514	0.159344
515	0.148556
516	0.138502
517	0.129110
518	0.120282
519	0.111859
520	0.103747
521	0.095909
522	0.088402
523	0.081117
524	0.074011
525	0.067063
526	0.060324
527	0.053860
528	0.047817
529	0.042246
530	0.037158
531	0.032590
532	0.028561
533	0.025009
534	0.021908
535	0.019184
536	0.016755
537	0.014567
538	0.012560
539	0.010712
540	0.008999
541	0.007430
542	0.006033
543	0.004829
544	0.003833
545	0.003053
546	0.002478
547	0.002076
548	0.001812
549	0.001644
550	0.001534
551	0.001445
552	0.001352
553	0.001241
554	0.001104
555	0.000946
556	0.000776
557	0.000610
558	0.000464
559	0.000354
560	0.000291
561	0.000281
562	0.000326
563	0.000416
564	0.000536
565	0.000658
566	0.000757
567	0.000813
568	0.000819
569	0.000775
570	0.000686
571	0.000556
572	0.000396
573	0.000225
574	0.000071
575	0.000000
576	0.000000
577	0.000000
578	0.000020
579	0.000151
580	0.000302
581	0.000440
582	0.000534
583	0.000560
584	0.000507
585	0.000378
586	0.000192
587	0.000000
588	0.000000
589	0.000000
590	0.000000
591	0.000000
592	0.000000
593	0.000258
594	0.000560
595	0.000827
596	0.001005
597	0.001061
598	0.000978
599	0.000775
600	0.000489
601	0.000173
602	0.000000
603	0.000000
604	0.000000
605	0.000000
606	0.000000
607	0.000001
608	0.000243
609	0.000532
610	0.000789
611	0.000977
612	0.001075
613	0.001072
614	0.000981
615	0.000822
616	0.000625
617	0.000425
618	0.000249
619	0.000114
620	0.000026
621	0.000000
622	0.000000
623	0.000017
624	0.000084
625	0.000181
626	0.000303
627	0.000444
628	0.000590
629	0.000725
630	0.000829
631	0.000883
632	0.000875
633	0.000809
634	0.000700
635	0.000576
636	0.000472
637	0.000419
638	0.000440
639	0.000538
640	0.000704
641	0.000909
642	0.001118
643	0.001293
644	0.001401
645	0.001422
646	0.001348
647	0.001191
648	0.000981
649	0.000756
650	0.000567
651	0.000461
652	0.000473
653	0.000607
654	0.000837
655	0.001109
656	0.001352
657	0.001502
658	0.001514
659	0.001382
660	0.001140
661	0.000851
662	0.000592
663	0.000431
664	0.000413
665	0.000538
666	0.000771
667	0.001050
668	0.001303
669	0.001466
670	0.001502
