# Spalte1: Wellenlänge [nm]
# Spalte2: Intensität
350	0.010144
351	0.009760
352	0.009371
353	0.008779
354	0.008074
355	0.007094
356	0.006031
357	0.004899
358	0.003817
359	0.002838
360	0.001945
361	0.001124
362	0.000422
363	0.000000
364	0.000000
365	0.000000
366	0.000154
367	0.000893
368	0.001870
369	0.002964
370	0.004019
371	0.004932
372	0.005590
373	0.005945
374	0.005910
375	0.005524
376	0.004807
377	0.003834
378	0.002667
379	0.001436
380	0.000231
381	0.000000
382	0.000000
383	0.000000
384	0.000000
385	0.000000
386	0.000000
387	0.000000
388	0.000102
389	0.001149
390	0.002110
391	0.002855
392	0.003263
393	0.003228
394	0.002709
395	0.001749
396	0.000478
397	0.000000
398	0.000000
399	0.000000
400	0.000000
401	0.000000
402	0.000000
403	0.000000
404	0.000012
405	0.001395
406	0.003227
407	0.004725
408	0.005665
409	0.005878
410	0.005326
411	0.004111
412	0.002432
413	0.000525
414	0.000000
415	0.000000
416	0.000000
417	0.000000
418	0.000000
419	0.000000
420	0.001815
421	0.004576
422	0.007261
423	0.009452
424	0.010784
425	0.011009
426	0.010048
427	0.008100
428	0.005602
429	0.003197
430	0.001679
431	0.001938
432	0.004713
433	0.010620
434	0.020061
435	0.033280
436	0.050105
437	0.070347
438	0.093805
439	0.120310
440	0.150205
441	0.183559
442	0.221304
443	0.264567
444	0.315236
445	0.374785
446	0.444953
447	0.526986
448	0.621611
449	0.729487
450	0.847823
451	0.974956
452	1.108350
453	1.246355
454	1.389170
455	1.533521
456	1.681070
457	1.830691
458	1.987495
459	2.156290
460	2.340228
461	2.542343
462	2.770533
463	3.032034
464	3.328349
465	3.657118
466	4.015302
467	4.394451
468	4.789520
469	5.197690
470	5.602303
471	5.993494
472	6.365061
473	6.707935
474	7.033281
475	7.352300
476	7.665039
477	7.965538
478	8.262850
479	8.565897
480	8.881506
481	9.198196
482	9.519592
483	9.842943
484	10.151424
485	10.442220
486	10.718003
487	10.962319
488	11.155485
489	11.309418
490	11.422933
491	11.508838
492	11.571471
493	11.611103
494	11.633968
495	11.664318
496	11.717848
497	11.788341
498	11.855214
499	11.955671
500	12.062620
501	12.159964
502	12.237764
503	12.298835
504	12.365428
505	12.421702
506	12.474936
507	12.520769
508	12.556308
509	12.578371
510	12.602340
511	12.629764
512	12.662142
513	12.694407
514	12.716125
515	12.716398
516	12.709446
517	12.691421
518	12.659950
519	12.608610
520	12.538754
521	12.457413
522	12.383158
523	12.309553
524	12.232949
525	12.145062
526	12.044016
527	11.927187
528	11.809991
529	11.691877
530	11.564051
531	11.430717
532	11.300358
533	11.161546
534	11.023978
535	10.885665
536	10.740392
537	10.596533
538	10.451395
539	10.316917
540	10.183134
541	10.051573
542	9.933187
543	9.826207
544	9.724193
545	9.636348
546	9.559868
547	9.480937
548	9.397103
549	9.317531
550	9.245559
551	9.175743
552	9.118524
553	9.061725
554	9.006032
555	8.942562
556	8.884084
557	8.829974
558	8.792710
559	8.764713
560	8.751195
561	8.777976
562	8.870692
563	8.988589
564	9.069603
565	9.031819
566	8.871333
567	8.637684
568	8.419369
569	8.271656
570	8.231921
571	8.282754
572	8.379463
573	8.494469
574	8.624670
575	8.757922
576	8.896050
577	9.028065
578	9.163026
579	9.301341
580	9.432879
581	9.548751
582	9.639187
583	9.694487
584	9.694642
585	9.627134
586	9.482148
587	9.241033
588	8.896102
589	8.457662
590	7.932263
591	7.334444
592	6.683332
593	5.997313
594	5.302265
595	4.617943
596	3.962540
597	3.351683
598	2.798853
599	2.308550
600	1.877035
601	1.498537
602	1.167571
603	0.876891
604	0.621423
605	0.401683
606	0.221281
607	0.082830
608	0.001389
609	0.000000
610	0.000000
611	0.000000
612	0.000000
613	0.014653
614	0.048731
615	0.070509
616	0.076422
617	0.067748
618	0.048490
619	0.024082
620	0.001451
621	0.000000
622	0.000000
623	0.000000
624	0.000000
625	0.000000
626	0.000101
627	0.009349
628	0.016504
629	0.019282
630	0.017952
631	0.013554
632	0.007622
633	0.001767
634	0.000000
635	0.000000
636	0.000000
637	0.000000
638	0.000000
639	0.002213
640	0.004909
641	0.006737
642	0.007488
643	0.007264
644	0.006338
645	0.005100
646	0.003908
647	0.003048
648	0.002654
649	0.002740
650	0.003176
651	0.003792
652	0.004419
653	0.004932
654	0.005274
655	0.005472
656	0.005591
657	0.005701
658	0.005845
659	0.006030
660	0.006261
661	0.006521
662	0.006788
663	0.007037
664	0.007262
665	0.007442
666	0.007589
667	0.007725
668	0.007868
669	0.008051
670	0.008291
