# Spalte1: Wellenlänge [nm]
# Spalte2: Intensität
417	0.000798
418	0.000835
419	0.001156
420	0.001510
421	0.001805
422	0.001945
423	0.001914
424	0.001750
425	0.001473
426	0.001156
427	0.000845
428	0.000568
429	0.000346
430	0.000185
431	0.000079
432	0.000021
433	0.000000
434	0.000000
435	0.000003
436	0.000016
437	0.000029
438	0.000039
439	0.000046
440	0.000050
441	0.000053
442	0.000054
443	0.000054
444	0.000053
445	0.000050
446	0.000045
447	0.000038
448	0.000031
449	0.000022
450	0.000014
451	0.000009
452	0.000007
453	0.000013
454	0.000026
455	0.000048
456	0.000077
457	0.000108
458	0.000137
459	0.000154
460	0.000154
461	0.000132
462	0.000092
463	0.000041
464	0.000000
465	0.000000
466	0.000000
467	0.000000
468	0.000012
469	0.000081
470	0.000158
471	0.000228
472	0.000280
473	0.000307
474	0.000307
475	0.000285
476	0.000248
477	0.000204
478	0.000160
479	0.000119
480	0.000085
481	0.000061
482	0.000052
483	0.000063
484	0.000097
485	0.000156
486	0.000235
487	0.000326
488	0.000416
489	0.000488
490	0.000529
491	0.000528
492	0.000488
493	0.000413
494	0.000322
495	0.000233
496	0.000166
497	0.000132
498	0.000134
499	0.000169
500	0.000223
501	0.000283
502	0.000333
503	0.000364
504	0.000369
505	0.000348
506	0.000311
507	0.000263
508	0.000215
509	0.000173
510	0.000146
511	0.000134
512	0.000136
513	0.000149
514	0.000167
515	0.000186
516	0.000201
517	0.000209
518	0.000209
519	0.000200
520	0.000184
521	0.000163
522	0.000141
523	0.000119
524	0.000100
525	0.000084
526	0.000072
527	0.000065
528	0.000062
529	0.000065
530	0.000072
531	0.000084
532	0.000100
533	0.000117
534	0.000133
535	0.000145
536	0.000151
537	0.000151
538	0.000147
539	0.000141
540	0.000136
541	0.000133
542	0.000133
543	0.000135
544	0.000137
545	0.000138
546	0.000140
547	0.000139
548	0.000138
549	0.000135
550	0.000130
551	0.000124
552	0.000116
553	0.000108
554	0.000099
555	0.000090
556	0.000082
557	0.000074
558	0.000068
559	0.000063
560	0.000060
561	0.000059
562	0.000061
563	0.000066
564	0.000074
565	0.000082
566	0.000090
567	0.000095
568	0.000094
569	0.000086
570	0.000069
571	0.000045
572	0.000016
573	0.000000
574	0.000000
575	0.000000
576	0.000000
577	0.000003
578	0.000047
579	0.000097
580	0.000138
581	0.000161
582	0.000161
583	0.000140
584	0.000107
585	0.000073
586	0.000051
587	0.000049
588	0.000067
589	0.000099
590	0.000136
591	0.000164
592	0.000173
593	0.000160
594	0.000127
595	0.000086
596	0.000049
597	0.000032
598	0.000039
599	0.000069
600	0.000111
601	0.000157
602	0.000203
603	0.000256
604	0.000335
605	0.000453
606	0.000614
607	0.000797
608	0.000963
609	0.001049
610	0.001013
611	0.000845
612	0.000577
613	0.000289
614	0.000064
615	0.000000
616	0.000009
617	0.000130
618	0.000265
619	0.000334
620	0.000306
621	0.000204
622	0.000104
623	0.000087
624	0.000212
625	0.000471
626	0.000797
627	0.001086
628	0.001245
629	0.001208
630	0.001003
631	0.000715
632	0.000442
633	0.000272
634	0.000236
635	0.000307
636	0.000425
637	0.000525
638	0.000580
639	0.000593
640	0.000586
641	0.000580
642	0.000568
643	0.000519
644	0.000394
645	0.000177
646	0.000000
647	0.000000
648	0.000000
649	0.000000
650	0.000000
651	0.000171
652	0.000661
653	0.001048
654	0.001196
655	0.001053
656	0.000707
657	0.000327
658	0.000112
659	0.000205
660	0.000637
661	0.001296
662	0.001980
663	0.002403
664	0.002336
665	0.001614
666	0.000337
667	0.000000
668	0.000000
669	0.000000
670	0.000000
