# Spalte1: Wellenlänge [nm]
# Spalte2: Intensität
417	0.000797
418	0.000833
419	0.001152
420	0.001503
421	0.001796
422	0.001934
423	0.001904
424	0.001740
425	0.001464
426	0.001149
427	0.000840
428	0.000564
429	0.000344
430	0.000184
431	0.000078
432	0.000020
433	0.000000
434	0.000000
435	0.000003
436	0.000016
437	0.000028
438	0.000038
439	0.000045
440	0.000050
441	0.000052
442	0.000053
443	0.000053
444	0.000052
445	0.000049
446	0.000044
447	0.000038
448	0.000030
449	0.000022
450	0.000014
451	0.000009
452	0.000007
453	0.000013
454	0.000026
455	0.000047
456	0.000075
457	0.000106
458	0.000134
459	0.000151
460	0.000151
461	0.000130
462	0.000091
463	0.000040
464	0.000000
465	0.000000
466	0.000000
467	0.000000
468	0.000011
469	0.000079
470	0.000154
471	0.000223
472	0.000274
473	0.000299
474	0.000300
475	0.000277
476	0.000241
477	0.000199
478	0.000155
479	0.000116
480	0.000082
481	0.000059
482	0.000051
483	0.000061
484	0.000094
485	0.000151
486	0.000227
487	0.000315
488	0.000402
489	0.000471
490	0.000510
491	0.000509
492	0.000470
493	0.000398
494	0.000310
495	0.000224
496	0.000160
497	0.000126
498	0.000129
499	0.000161
500	0.000214
501	0.000271
502	0.000319
503	0.000347
504	0.000352
505	0.000333
506	0.000297
507	0.000251
508	0.000204
509	0.000165
510	0.000139
511	0.000127
512	0.000129
513	0.000141
514	0.000158
515	0.000176
516	0.000190
517	0.000197
518	0.000197
519	0.000188
520	0.000173
521	0.000154
522	0.000132
523	0.000112
524	0.000094
525	0.000079
526	0.000068
527	0.000061
528	0.000058
529	0.000061
530	0.000067
531	0.000079
532	0.000093
533	0.000109
534	0.000124
535	0.000134
536	0.000140
537	0.000140
538	0.000136
539	0.000131
540	0.000126
541	0.000123
542	0.000123
543	0.000124
544	0.000126
545	0.000127
546	0.000128
547	0.000128
548	0.000126
549	0.000123
550	0.000119
551	0.000113
552	0.000106
553	0.000098
554	0.000090
555	0.000082
556	0.000074
557	0.000067
558	0.000062
559	0.000057
560	0.000054
561	0.000053
562	0.000055
563	0.000060
564	0.000066
565	0.000074
566	0.000080
567	0.000085
568	0.000084
569	0.000076
570	0.000062
571	0.000040
572	0.000014
573	0.000000
574	0.000000
575	0.000000
576	0.000000
577	0.000003
578	0.000041
579	0.000085
580	0.000121
581	0.000141
582	0.000141
583	0.000123
584	0.000094
585	0.000064
586	0.000044
587	0.000042
588	0.000057
589	0.000085
590	0.000117
591	0.000142
592	0.000150
593	0.000138
594	0.000110
595	0.000074
596	0.000042
597	0.000027
598	0.000032
599	0.000058
600	0.000094
601	0.000134
602	0.000173
603	0.000219
604	0.000284
605	0.000381
606	0.000515
607	0.000666
608	0.000804
609	0.000875
610	0.000846
611	0.000705
612	0.000483
613	0.000242
614	0.000053
615	0.000000
616	0.000005
617	0.000103
618	0.000215
619	0.000275
620	0.000254
621	0.000172
622	0.000089
623	0.000072
624	0.000170
625	0.000376
626	0.000637
627	0.000871
628	0.001000
629	0.000971
630	0.000807
631	0.000574
632	0.000353
633	0.000214
634	0.000182
635	0.000239
636	0.000333
637	0.000414
638	0.000458
639	0.000467
640	0.000459
641	0.000451
642	0.000439
643	0.000399
644	0.000302
645	0.000137
646	0.000000
647	0.000000
648	0.000000
649	0.000000
650	0.000000
651	0.000124
652	0.000495
653	0.000788
654	0.000902
655	0.000796
656	0.000538
657	0.000253
658	0.000088
659	0.000153
660	0.000468
661	0.000948
662	0.001447
663	0.001754
664	0.001705
665	0.001181
666	0.000256
667	0.000000
668	0.000000
669	0.000000
670	0.000000
