# Spalte1: Wellenlänge [nm]
# Spalte2: Intensität
417	0.302686
418	0.307206
419	0.318108
420	0.315751
421	0.314538
422	0.309664
423	0.302760
424	0.296049
425	0.285166
426	0.273921
427	0.263040
428	0.251142
429	0.239330
430	0.227802
431	0.214819
432	0.201828
433	0.188956
434	0.175293
435	0.161242
436	0.147676
437	0.134807
438	0.122485
439	0.110686
440	0.099723
441	0.089902
442	0.080953
443	0.073033
444	0.066304
445	0.060453
446	0.055428
447	0.051236
448	0.047760
449	0.044895
450	0.042616
451	0.040872
452	0.039531
453	0.038629
454	0.038052
455	0.037849
456	0.037866
457	0.037953
458	0.038090
459	0.038137
460	0.037992
461	0.037696
462	0.037104
463	0.036298
464	0.035263
465	0.034080
466	0.032813
467	0.031584
468	0.030409
469	0.029287
470	0.028268
471	0.027276
472	0.026330
473	0.025426
474	0.024569
475	0.023721
476	0.023005
477	0.022428
478	0.021964
479	0.021535
480	0.021120
481	0.020646
482	0.020047
483	0.019281
484	0.018384
485	0.017390
486	0.016419
487	0.015521
488	0.014718
489	0.014002
490	0.013374
491	0.012765
492	0.012166
493	0.011519
494	0.010823
495	0.010071
496	0.009295
497	0.008493
498	0.007693
499	0.006921
500	0.006202
501	0.005529
502	0.004901
503	0.004314
504	0.003763
505	0.003229
506	0.002748
507	0.002304
508	0.001906
509	0.001551
510	0.001258
511	0.001019
512	0.000833
513	0.000697
514	0.000601
515	0.000536
516	0.000489
517	0.000450
518	0.000410
519	0.000363
520	0.000310
521	0.000253
522	0.000196
523	0.000147
524	0.000109
525	0.000087
526	0.000081
527	0.000087
528	0.000102
529	0.000120
530	0.000135
531	0.000145
532	0.000146
533	0.000138
534	0.000124
535	0.000107
536	0.000090
537	0.000076
538	0.000069
539	0.000067
540	0.000069
541	0.000070
542	0.000069
543	0.000064
544	0.000053
545	0.000038
546	0.000023
547	0.000012
548	0.000007
549	0.000011
550	0.000023
551	0.000042
552	0.000064
553	0.000086
554	0.000107
555	0.000128
556	0.000150
557	0.000176
558	0.000209
559	0.000244
560	0.000280
561	0.000310
562	0.000327
563	0.000324
564	0.000296
565	0.000247
566	0.000188
567	0.000133
568	0.000088
569	0.000059
570	0.000044
571	0.000042
572	0.000046
573	0.000053
574	0.000060
575	0.000066
576	0.000071
577	0.000077
578	0.000084
579	0.000092
580	0.000102
581	0.000111
582	0.000118
583	0.000121
584	0.000117
585	0.000107
586	0.000092
587	0.000074
588	0.000057
589	0.000044
590	0.000039
591	0.000043
592	0.000053
593	0.000069
594	0.000086
595	0.000102
596	0.000115
597	0.000124
598	0.000130
599	0.000135
600	0.000140
601	0.000148
602	0.000157
603	0.000168
604	0.000180
605	0.000193
606	0.000202
607	0.000208
608	0.000207
609	0.000200
610	0.000189
611	0.000180
612	0.000179
613	0.000194
614	0.000223
615	0.000261
616	0.000300
617	0.000327
618	0.000336
619	0.000328
620	0.000311
621	0.000299
622	0.000303
623	0.000328
624	0.000368
625	0.000409
626	0.000438
627	0.000444
628	0.000430
629	0.000403
630	0.000383
631	0.000387
632	0.000420
633	0.000476
634	0.000534
635	0.000573
636	0.000573
637	0.000537
638	0.000485
639	0.000449
640	0.000460
641	0.000533
642	0.000661
643	0.000816
644	0.000955
645	0.001050
646	0.001098
647	0.001105
648	0.001111
649	0.001142
650	0.001233
651	0.001375
652	0.001560
653	0.001755
654	0.001919
655	0.001996
656	0.001988
657	0.001910
658	0.001809
659	0.001794
660	0.001937
661	0.002271
662	0.002786
663	0.003329
664	0.003779
665	0.003945
666	0.003829
667	0.003495
668	0.002988
669	0.002592
670	0.002438
