# Spalte1: Wellenlänge [nm]
# Spalte2: Intensität
417	0.021945
418	0.018443
419	0.015830
420	0.013050
421	0.010800
422	0.008824
423	0.007145
424	0.005780
425	0.004612
426	0.003697
427	0.003016
428	0.002522
429	0.002183
430	0.001963
431	0.001808
432	0.001698
433	0.001604
434	0.001501
435	0.001382
436	0.001253
437	0.001121
438	0.000993
439	0.000880
440	0.000792
441	0.000738
442	0.000721
443	0.000741
444	0.000802
445	0.000903
446	0.001047
447	0.001240
448	0.001490
449	0.001808
450	0.002210
451	0.002714
452	0.003334
453	0.004097
454	0.005018
455	0.006134
456	0.007450
457	0.008957
458	0.010672
459	0.012582
460	0.014686
461	0.017038
462	0.019628
463	0.022555
464	0.025880
465	0.029731
466	0.034217
467	0.039516
468	0.045724
469	0.052903
470	0.061220
471	0.070585
472	0.081035
473	0.092504
474	0.104854
475	0.117617
476	0.130994
477	0.144839
478	0.159018
479	0.173297
480	0.188139
481	0.203758
482	0.220296
483	0.237541
484	0.255525
485	0.273658
486	0.292256
487	0.310737
488	0.328268
489	0.344003
490	0.358281
491	0.370282
492	0.381140
493	0.390558
494	0.399535
495	0.408260
496	0.417809
497	0.427175
498	0.436410
499	0.445512
500	0.455058
501	0.464237
502	0.472714
503	0.480651
504	0.487922
505	0.492065
506	0.497832
507	0.502908
508	0.507327
509	0.509055
510	0.511875
511	0.513027
512	0.511803
513	0.509187
514	0.504947
515	0.499823
516	0.492996
517	0.485756
518	0.478881
519	0.470488
520	0.463650
521	0.457391
522	0.451685
523	0.445730
524	0.440077
525	0.434683
526	0.429282
527	0.423283
528	0.417618
529	0.411901
530	0.406250
531	0.401455
532	0.396573
533	0.390972
534	0.386401
535	0.381023
536	0.376235
537	0.371809
538	0.366955
539	0.361919
540	0.356590
541	0.351403
542	0.346967
543	0.342483
544	0.338294
545	0.334057
546	0.330693
547	0.327099
548	0.324014
549	0.321260
550	0.318321
551	0.315396
552	0.311486
553	0.308277
554	0.304506
555	0.300557
556	0.296145
557	0.291964
558	0.288374
559	0.283902
560	0.279503
561	0.276319
562	0.274571
563	0.272428
564	0.267385
565	0.258507
566	0.246922
567	0.235133
568	0.222865
569	0.211725
570	0.203002
571	0.197859
572	0.193665
573	0.189499
574	0.185644
575	0.182626
576	0.180211
577	0.178750
578	0.178093
579	0.178101
580	0.178551
581	0.179206
582	0.179832
583	0.179955
584	0.178993
585	0.176374
586	0.172014
587	0.165477
588	0.156346
589	0.145381
590	0.132224
591	0.117656
592	0.101954
593	0.086123
594	0.070777
595	0.056436
596	0.043690
597	0.032839
598	0.024141
599	0.017386
600	0.012461
601	0.009082
602	0.006867
603	0.005429
604	0.004488
605	0.003808
606	0.003256
607	0.002764
608	0.002336
609	0.001968
610	0.001687
611	0.001499
612	0.001401
613	0.001381
614	0.001409
615	0.001466
616	0.001533
617	0.001593
618	0.001641
619	0.001682
620	0.001715
621	0.001748
622	0.001784
623	0.001828
624	0.001876
625	0.001930
626	0.001994
627	0.002064
628	0.002138
629	0.002191
630	0.002226
631	0.002261
632	0.002296
633	0.002356
634	0.002459
635	0.002616
636	0.002815
637	0.003038
638	0.003280
639	0.003509
640	0.003693
641	0.003819
642	0.003870
643	0.003841
644	0.003715
645	0.003542
646	0.003412
647	0.003376
648	0.003521
649	0.003844
650	0.004342
651	0.004885
652	0.005375
653	0.005719
654	0.005870
655	0.005806
656	0.005678
657	0.005627
658	0.005737
659	0.006159
660	0.006824
661	0.007586
662	0.008362
663	0.008870
664	0.009146
665	0.009114
666	0.009072
667	0.009254
668	0.009570
669	0.010343
670	0.011456
