# Spalte1: Wellenlänge [nm]
# Spalte2: Intensität
417	0.043351
418	0.042000
419	0.042384
420	0.041870
421	0.042252
422	0.042672
423	0.043084
424	0.043540
425	0.043179
426	0.042405
427	0.041267
428	0.039551
429	0.037516
430	0.035300
431	0.032750
432	0.030195
433	0.027732
434	0.025273
435	0.022898
436	0.020728
437	0.018770
438	0.016971
439	0.015300
440	0.013772
441	0.012411
442	0.011168
443	0.010059
444	0.009107
445	0.008270
446	0.007546
447	0.006939
448	0.006432
449	0.006014
450	0.005679
451	0.005420
452	0.005215
453	0.005068
454	0.004961
455	0.004901
456	0.004869
457	0.004849
458	0.004843
459	0.004840
460	0.004834
461	0.004835
462	0.004827
463	0.004817
464	0.004798
465	0.004772
466	0.004736
467	0.004696
468	0.004648
469	0.004585
470	0.004513
471	0.004420
472	0.004315
473	0.004205
474	0.004096
475	0.003991
476	0.003915
477	0.003873
478	0.003865
479	0.003874
480	0.003896
481	0.003914
482	0.003912
483	0.003874
484	0.003803
485	0.003700
486	0.003585
487	0.003467
488	0.003352
489	0.003242
490	0.003142
491	0.003044
492	0.002948
493	0.002844
494	0.002732
495	0.002606
496	0.002471
497	0.002322
498	0.002162
499	0.001996
500	0.001831
501	0.001664
502	0.001496
503	0.001328
504	0.001161
505	0.000994
506	0.000842
507	0.000707
508	0.000592
509	0.000499
510	0.000432
511	0.000383
512	0.000348
513	0.000321
514	0.000299
515	0.000277
516	0.000255
517	0.000235
518	0.000217
519	0.000204
520	0.000197
521	0.000197
522	0.000200
523	0.000206
524	0.000210
525	0.000212
526	0.000207
527	0.000196
528	0.000180
529	0.000161
530	0.000144
531	0.000133
532	0.000130
533	0.000135
534	0.000146
535	0.000160
536	0.000172
537	0.000178
538	0.000175
539	0.000163
540	0.000143
541	0.000118
542	0.000091
543	0.000063
544	0.000039
545	0.000022
546	0.000013
547	0.000016
548	0.000029
549	0.000050
550	0.000075
551	0.000100
552	0.000120
553	0.000132
554	0.000135
555	0.000131
556	0.000122
557	0.000113
558	0.000106
559	0.000101
560	0.000099
561	0.000098
562	0.000098
563	0.000096
564	0.000093
565	0.000088
566	0.000085
567	0.000083
568	0.000084
569	0.000086
570	0.000089
571	0.000092
572	0.000093
573	0.000092
574	0.000092
575	0.000092
576	0.000093
577	0.000095
578	0.000097
579	0.000097
580	0.000096
581	0.000096
582	0.000099
583	0.000107
584	0.000120
585	0.000135
586	0.000148
587	0.000154
588	0.000147
589	0.000128
590	0.000098
591	0.000063
592	0.000033
593	0.000016
594	0.000015
595	0.000032
596	0.000062
597	0.000097
598	0.000128
599	0.000148
600	0.000159
601	0.000164
602	0.000172
603	0.000189
604	0.000220
605	0.000258
606	0.000294
607	0.000312
608	0.000303
609	0.000261
610	0.000193
611	0.000113
612	0.000040
613	0.000000
614	0.000000
615	0.000009
616	0.000066
617	0.000136
618	0.000198
619	0.000233
620	0.000223
621	0.000163
622	0.000061
623	0.000000
624	0.000000
625	0.000000
626	0.000000
627	0.000134
628	0.000382
629	0.000572
630	0.000577
631	0.000288
632	0.000000
633	0.000000
634	0.000000
635	0.000000
636	0.000000
637	0.000000
638	0.000000
639	0.000000
640	0.000000
641	0.000000
642	0.000000
643	0.000000
644	0.000000
645	0.000000
646	0.000000
647	0.000232
648	0.000553
649	0.000843
650	0.001065
651	0.001179
652	0.001199
653	0.001179
654	0.001188
655	0.001267
656	0.001423
657	0.001601
658	0.001694
659	0.001655
660	0.001474
661	0.001249
662	0.001166
663	0.001378
664	0.001976
665	0.002812
666	0.003592
667	0.003917
668	0.003333
669	0.001940
670	0.000216
