# Spalte1: Wellenlänge [nm]
# Spalte2: Intensität
417	0.461585
418	0.461713
419	0.466681
420	0.450087
421	0.435705
422	0.418570
423	0.402125
424	0.389611
425	0.374822
426	0.361972
427	0.351057
428	0.339298
429	0.327406
430	0.315217
431	0.300124
432	0.284104
433	0.267510
434	0.249255
435	0.230099
436	0.211439
437	0.193686
438	0.176668
439	0.160351
440	0.145159
441	0.131510
442	0.119000
443	0.107863
444	0.098366
445	0.090078
446	0.082952
447	0.077030
448	0.072151
449	0.068171
450	0.065052
451	0.062710
452	0.060931
453	0.059754
454	0.058983
455	0.058679
456	0.058603
457	0.058547
458	0.058531
459	0.058421
460	0.058166
461	0.057924
462	0.057537
463	0.057145
464	0.056676
465	0.056153
466	0.055533
467	0.054868
468	0.054063
469	0.053031
470	0.051843
471	0.050402
472	0.048843
473	0.047269
474	0.045793
475	0.044408
476	0.043363
477	0.042647
478	0.042167
479	0.041731
480	0.041272
481	0.040643
482	0.039723
483	0.038442
484	0.036884
485	0.035132
486	0.033438
487	0.031929
488	0.030669
489	0.029650
490	0.028875
491	0.028179
492	0.027516
493	0.026728
494	0.025785
495	0.024647
496	0.023383
497	0.021980
498	0.020511
499	0.019047
500	0.017664
501	0.016359
502	0.015130
503	0.013979
504	0.012887
505	0.011780
506	0.010771
507	0.009797
508	0.008863
509	0.007941
510	0.007104
511	0.006313
512	0.005569
513	0.004891
514	0.004282
515	0.003749
516	0.003286
517	0.002899
518	0.002584
519	0.002316
520	0.002098
521	0.001907
522	0.001728
523	0.001548
524	0.001364
525	0.001178
526	0.000995
527	0.000823
528	0.000675
529	0.000555
530	0.000468
531	0.000412
532	0.000379
533	0.000360
534	0.000348
535	0.000334
536	0.000316
537	0.000291
538	0.000264
539	0.000238
540	0.000219
541	0.000211
542	0.000214
543	0.000227
544	0.000244
545	0.000260
546	0.000268
547	0.000263
548	0.000246
549	0.000217
550	0.000180
551	0.000140
552	0.000103
553	0.000073
554	0.000051
555	0.000038
556	0.000033
557	0.000036
558	0.000046
559	0.000062
560	0.000081
561	0.000100
562	0.000117
563	0.000127
564	0.000126
565	0.000115
566	0.000098
567	0.000080
568	0.000066
569	0.000060
570	0.000064
571	0.000075
572	0.000091
573	0.000106
574	0.000116
575	0.000119
576	0.000114
577	0.000103
578	0.000090
579	0.000079
580	0.000074
581	0.000076
582	0.000087
583	0.000103
584	0.000121
585	0.000136
586	0.000147
587	0.000151
588	0.000149
589	0.000144
590	0.000139
591	0.000138
592	0.000144
593	0.000158
594	0.000177
595	0.000195
596	0.000207
597	0.000207
598	0.000192
599	0.000165
600	0.000134
601	0.000109
602	0.000099
603	0.000108
604	0.000136
605	0.000172
606	0.000206
607	0.000226
608	0.000225
609	0.000203
610	0.000170
611	0.000140
612	0.000127
613	0.000140
614	0.000176
615	0.000227
616	0.000278
617	0.000312
618	0.000321
619	0.000308
620	0.000281
621	0.000255
622	0.000246
623	0.000258
624	0.000288
625	0.000326
626	0.000356
627	0.000367
628	0.000358
629	0.000331
630	0.000303
631	0.000290
632	0.000300
633	0.000335
634	0.000386
635	0.000437
636	0.000471
637	0.000481
638	0.000473
639	0.000457
640	0.000447
641	0.000456
642	0.000485
643	0.000529
644	0.000569
645	0.000594
646	0.000605
647	0.000606
648	0.000626
649	0.000685
650	0.000803
651	0.000968
652	0.001154
653	0.001327
654	0.001459
655	0.001522
656	0.001530
657	0.001492
658	0.001408
659	0.001317
660	0.001242
661	0.001222
662	0.001311
663	0.001499
664	0.001776
665	0.002039
666	0.002227
667	0.002282
668	0.002113
669	0.001821
670	0.001493
